# Ort/mm Intensit√§t/nm
14.3 2.95
13 4.95
12 7.6
11 11.92
10 20.15
9 34.0
8 54.5
7 89.0
6 129.8
5 173.9
4 218
3 285
2 326
1 314
0 303
-1 352
-2 335
-3 356
-4 403
-5 473
-6 526
-7 512
-8 404
-9 258
-10 207
-11 105.5
-12 73.5
-13 51.3
-14 31.7
-15 26.0